File: Benchmark/ASCIIdata_splib07b_cvHYPERION/ChapterM_Minerals/s07HYPRN_Chalcedony_CU91-6A_XRD_NIC4aa_RREF.txt
s07HYPRN Record=746: Chalcedony CU91-6A XRD       NIC4aa RREF
-1.23e+34
-1.23e+34
-1.23e+34
-1.23e+34
-1.23e+34
-1.23e+34
-1.23e+34
-1.23e+34
-1.23e+34
-1.23e+34
-1.23e+34
-1.23e+34
-1.23e+34
-1.23e+34
-1.23e+34
-1.23e+34
-1.23e+34
-1.23e+34
-1.23e+34
-1.23e+34
-1.23e+34
-1.23e+34
-1.23e+34
-1.23e+34
-1.23e+34
-1.23e+34
-1.23e+34
-1.23e+34
-1.23e+34
-1.23e+34
-1.23e+34
-1.23e+34
-1.23e+34
-1.23e+34
-1.23e+34
-1.23e+34
-1.23e+34
-1.23e+34
-1.23e+34
-1.23e+34
-1.23e+34
-1.23e+34
-1.23e+34
-1.23e+34
-1.23e+34
-1.23e+34
-1.23e+34
-1.23e+34
-1.23e+34
-1.23e+34
-1.23e+34
-1.23e+34
-1.23e+34
-1.23e+34
-1.23e+34
-1.23e+34
-1.23e+34
-1.23e+34
-1.23e+34
-1.23e+34
-1.23e+34
-1.23e+34
-1.23e+34
-1.23e+34
-1.23e+34
-1.23e+34
-1.23e+34
-1.23e+34
-1.23e+34
-1.23e+34
-1.23e+34
-1.23e+34
-1.23e+34
-1.23e+34
-1.23e+34
-1.23e+34
-1.23e+34
-1.23e+34
-1.23e+34
-1.23e+34
-1.23e+34
-1.23e+34
-1.23e+34
-1.23e+34
-1.23e+34
-1.23e+34
-1.23e+34
-1.23e+34
-1.23e+34
-1.23e+34
-1.23e+34
-1.23e+34
-1.23e+34
-1.23e+34
-1.23e+34
-1.23e+34
-1.23e+34
-1.23e+34
-1.23e+34
-1.23e+34
-1.23e+34
-1.23e+34
-1.23e+34
-1.23e+34
-1.23e+34
-1.23e+34
-1.23e+34
-1.23e+34
-1.23e+34
-1.23e+34
-1.23e+34
-1.23e+34
-1.23e+34
-1.23e+34
-1.23e+34
-1.23e+34
-1.23e+34
-1.23e+34
-1.23e+34
-1.23e+34
-1.23e+34
-1.23e+34
-1.23e+34
-1.23e+34
-1.23e+34
-1.23e+34
-1.23e+34
-1.23e+34
-1.23e+34
-1.23e+34
-1.23e+34
-1.23e+34
-1.23e+34
-1.23e+34
-1.23e+34
-1.23e+34
-1.23e+34
-1.23e+34
-1.23e+34
-1.23e+34
-1.23e+34
-1.23e+34
-1.23e+34
-1.23e+34
-1.23e+34
 0.439808
 0.441689
 0.444105
 0.446713
 0.449351
 0.451566
 0.453273
 0.454707
 0.456285
 0.458164
 0.460196
 0.46231
 0.464084
 0.465353
 0.466346
 0.467298
 0.468436
 0.469857
 0.471348
 0.472769
 0.473932
 0.474714
 0.475151
 0.475458
 0.476091
 0.476802
 0.477243
 0.477178
 0.475545
 0.472851
 0.4714
 0.471558
 0.472435
 0.473678
 0.475137
 0.476736
 0.478425
 0.479827
 0.480972
 0.481747
 0.482138
 0.482229
 0.482325
 0.482535
 0.482916
 0.483323
 0.483797
 0.484231
 0.484393
 0.484373
 0.484003
 0.483459
 0.482596
 0.481546
 0.480278
 0.478715
 0.476419
 0.472944
 0.469525
 0.468427
 0.469074
 0.469728
 0.469803
 0.469345
 0.468947
 0.468928
 0.468937
 0.469018
 0.469237
 0.469828
 0.470583
 0.471265
 0.471716
 0.471689
 0.471661
 0.471429
 0.470667
 0.469702
 0.468552
 0.467207
 0.46565
 0.4638
 0.461857
 0.460049
 0.458208
 0.45649
 0.454929
 0.45355
 0.452207
 0.450753
 0.449247
 0.447651
 0.446019
 0.444429
 0.442836
 0.441078
 0.439777